PDF#05-0665: QM=Indexed; d=(Unknown); I=Diffractometer
Zirconium
Zr	(Bluish black)
Radiation=CuKa1	Lambda=1.5405	Filter=Ni
Calibration=	d-Cutoff=	I/Ic(RIR)=
Ref= Swanson, Fuyat.
Natl. Bur. Stand. (U.S.), Circ. 539, II 11 (1953)
Hexagonal - Powder Diffraction,  P63/mmc (194)	Z=2	mp=
Cell=3.232x5.147	Pearson=hP2 (Mg)
Density(c)=6.505	Density(m)=6.50A	Mwt=91.22	Vol=46.56	F(25)=37.8(0.025,26)
Ref= Ibid.

Strong Line: 2.46/X 2.80/3 2.57/3 1.46/2 1.37/2 1.89/2 1.62/2 1.35/1 1.04/1 0.90/1
NOTE:  Sample from Johnson Matthey Company, Ltd.
Spectroscopic analysis: <0.1% Hf; <0.01% Ti, Fe; <0.001% Mg, Cu, Si, Al, Ag, Ca.
Pattern taken at 25 C.
Zr becomes BCC at 850 C.
Merck Index, 8th Ed., p.
1131.
Component of pyrotechnic boom powders.

d(A)     I(f)   I(v)  h  k  l  n^2  2-Theta   Theta  1/(2d)   2pi/d  
 2.798   33.0   29.0  1  0  0        31.959  15.980  0.1787  2.2456
 2.573   32.0   31.0  0  0  2        34.840  17.420  0.1943  2.4420
 2.459  100.0  100.0  1  0  1        36.510  18.255  0.2033  2.5552
 1.894   17.0   22.0  1  0  2        47.995  23.997  0.2640  3.3174
 1.616   17.0   26.0  1  1  0        56.935  28.467  0.3094  3.8881
 1.463   18.0   30.0  1  0  3        63.540  31.770  0.3418  4.2947
 1.399    3.0    5.0  2  0  0        66.815  33.408  0.3574  4.4912
 1.368   18.0   32.0  1  1  2        68.537  34.268  0.3655  4.5930
 1.350   12.0   22.0  2  0  1        69.581  34.791  0.3704  4.6542
 1.287    4.0    8.0  0  0  4        73.526  36.763  0.3885  4.8820
 1.229    4.0    8.0  2  0  2        77.577  38.789  0.4066  5.1099
 1.168    3.0    6.0  1  0  4        82.444  41.222  0.4278  5.3753
 1.084    4.0    9.0  2  0  3        90.545  45.272  0.4612  5.7952
 1.058    2.0    5.0  2  1  0        93.355  46.677  0.4722  5.9343
 1.036    6.0   14.0  2  1  1        96.063  48.032  0.4826  6.0649
 1.006    3.0    7.0  1  1  4        99.895  49.948  0.4969  6.2438
 0.978    2.0    5.0  2  1  2       103.880  51.940  0.5111  6.4226
 0.966    4.0   10.0  1  0  5       105.763  52.882  0.5176  6.5043
 0.947    2.0    5.0  2  0  4       108.789  54.395  0.5278  6.6320
 0.932    3.0    8.0  3  0  0       111.352  55.676  0.5361  6.7366
 0.900    5.0   14.0  2  1  3       117.648  58.824  0.5554  6.9790
 0.877    3.0    8.0  3  0  2       122.855  61.427  0.5701  7.1636
 0.857    1.0    3.0  0  0  6       127.813  63.906  0.5830  7.3256
 0.829    2.0    6.0  2  0  5       136.541  68.271  0.6030  7.5774
 0.820    2.0    6.0  1  0  6       139.852  69.926  0.6097  7.6615
